Displacement [mm],Force [kN]
0,0
0.0098,-20.2175
0.0183,-19.9494
0.0124,-19.5324
0.0122,-19.294
0.0047,-19.5027
-0.3126,-83.4898
-0.8804,-194.4232
-0.6012,-125.2524
-0.0251,-14.7661
0.5262,93.1912
0.9844,165.1591
0.4008,51.0067
-0.1421,-55.6376
-0.719,-167.7032
-0.7592,-158.468
-0.1812,-46.0428
0.3755,60.8102
0.9491,171.5039
0.5444,78.5614
0.0031,-29.2436
-0.5826,-139.7002
-0.913,-186.8885
-0.3288,-72.7361
0.2396,33.2836
0.8193,145.1702
0.6934,106.2092
0.1285,-4.1611
-0.4294,-111.7015
-1.0201,-224.1534
-0.4682,-101.1254
0.0913,6.6227
0.6759,117.3181
0.8438,133.8216
0.258,21.9935
-0.2878,-83.876
-0.8812,-196.954
-0.5963,-128.4403
-0.0233,-17.7152
0.5189,89.4971
0.9893,162.3619
0.4021,48.8045
-0.1543,-57.5424
-0.7359,-170.234
-0.7497,-156.9185
-0.1652,-44.7641
0.3788,62.1511
0.973,173.2044
0.5239,76.479
-0.0133,-30.9712
-0.5883,-141.5472
-1.1638,-255.5797
-1.3769,-279.7422
-0.792,-165.1991
-0.2125,-53.431
0.3411,52.4986
0.9267,163.6984
1.5172,269.659
0.9691,154.4054
0.3938,43.71
-0.1595,-62.0401
-0.7341,-173.422
-1.2949,-285.7584
-1.238,-254.2122
-0.6381,-140.2685
-0.0712,-29.4221
0.4744,76.9852
1.0607,187.3547
1.4211,238.2326
0.8416,127.5346
0.2405,16.1549
-0.2994,-88.76
-0.8893,-200.9766
-1.4376,-313.2242
-1.0899,-228.0872
-0.5191,-113.9038
0.0421,-6.9615
0.6023,102.9325
1.2081,212.4052
1.295,211.1842
0.6759,100.1309
0.1143,-9.5829
-0.4351,-116.3458
-1.0234,-228.771
-1.5192,-320.7278
-0.9526,-199.4892
-0.3731,-86.5889
0.1819,19.4916
0.7605,130.1586
1.3529,238.9475
1.1504,184.4332
0.5339,73.1135
-0.0089,-33.1459
-0.5725,-142.9769
-1.1464,-255.9394
-1.3823,-285.1634
-0.8031,-170.5626
-0.2168,-58.346
0.3216,46.7177
0.9203,158.1617
1.5052,266.0537
0.9923,157.3847
0.4039,45.8563
-0.1511,-59.4516
-0.7236,-170.6514
-1.282,-282.9878
-1.2364,-257.5156
-0.652,-143.5763
-0.0814,-32.2224
0.4621,73.6774
1.0494,183.9847
1.4287,238.6189
0.8512,128.1917
0.2583,17.1082
-0.2922,-88.0452
-0.8743,-199.9332
-1.4374,-312.687
-1.9957,-423.5005
-2.0691,-414.5672
-1.4615,-300.1751
-0.9237,-186.9151
-0.3321,-74.8495
0.231,29.9176
0.8032,139.7224
1.3905,247.974
1.9838,349.7033
2.0875,348.3313
1.4876,240.1996
0.8856,131.2908
0.3083,21.4279
-0.2376,-82.655
-0.8055,-192.4873
-1.3634,-303.6916
-1.9376,-414.03
-2.1143,-431.8122
-1.5357,-317.9306
-0.9769,-203.8981
-0.3876,-92.2188
0.1545,13.1761
0.7332,122.3842
1.3144,230.6047
1.9311,335.2555
2.1492,360.4259
1.5613,252.8891
0.9668,143.8027
0.3721,33.9389
-0.1689,-69.8767
-0.7314,-179.5003
-1.2973,-290.5225
-1.8799,-401.7268
-2.1784,-445.1988
-1.6097,-331.6014
-1.0347,-218.075
-0.4477,-105.5921
0.084,-0.0204
0.666,108.8866
1.2512,216.5166
1.8601,321.345
2.2214,372.6092
1.6335,265.9382
1.0243,156.9362
0.4452,47.0152
-0.1037,-56.8276
-0.6694,-166.4822
-1.2374,-276.9983
-1.8025,-388.2602
-2.2521,-462.6924
-1.6764,-345.4853
-1.0983,-232.0788
-0.5151,-118.9964
0.0436,-11.37
0.5926,95.722
1.1719,204.2444
1.7849,309.5479
2.2893,389.9474
1.7034,276.8384
1.0899,168.5868
0.5039,58.6346
-0.0227,-45.0305
-0.5946,-154.1213
-1.1727,-264.8771
-1.734,-375.7217
-2.2859,-483.2496
-1.7309,-357.6376
-1.1594,-244.1423
-0.5787,-131.1221
-0.0114,-21.379
0.5331,83.2988
1.1263,192.5051
1.7161,297.6931
2.2825,399.8087
1.7799,288.0095
1.1627,180.3839
0.5715,70.969
0.0289,-34.01
-0.5383,-141.9335
-1.1145,-252.9601
-1.6734,-364.0134
-2.2354,-474.6804
-1.8137,-371.5792
-1.2195,-256.8318
-0.6456,-144.3178
-0.0675,-33.9203
0.4742,70.5205
1.0593,179.4604
1.6516,285.8339
2.2196,387.9539
1.671,270.1074
0.8674,124.946
0.1075,-18.1618
-0.6414,-161.4784
-1.392,-309.3481
-2.1427,-456.6096
-2.8966,-597.0912
-2.5436,-503.4072
-1.7716,-352.3051
-1.0087,-201.4561
-0.2431,-53.5198
0.4767,85.6254
1.2738,228.6112
2.0438,365.9093
2.8131,491.8188
2.5557,425.8759
1.7789,286.7308
0.9537,144.0691
0.2141,1.2009
-0.511,-137.529
-1.2769,-283.1654
-2.0237,-429.1926
-2.7625,-573.7812
-2.6332,-530.0472
-1.9008,-379.2648
-1.1288,-229.0374
-0.3765,-80.5993
0.3728,58.2484
1.1237,202.3974
1.9385,340.1706
2.6812,469.7964
2.6937,449.6388
1.9075,311.6036
1.1061,169.6568
0.3424,25.9855
-0.3888,-111.3419
-1.1316,-256.3256
-1.8979,-401.9932
-2.6228,-546.4308
-2.7683,-554.2896
-2.0137,-403.1875
-1.2495,-252.5738
-0.4721,-103.8072
0.2472,35.2199
1.0272,179.2783
1.8227,318.0994
2.5578,449.3724
2.8029,470.2404
2.0317,332.9023
1.2193,191.1065
0.4363,47.4636
-0.2761,-89.5681
-1.038,-233.7438
-1.7853,-380.2505
-2.5263,-525.3408
-2.8722,-573.2928
-2.4679,-495.1488
-2.4662,-495.6372
-2.4707,-495.9924
-2.4679,-496.2588
-2.4674,-496.9692
-2.4648,-496.2588
-2.4595,-496.0368
-2.4669,-496.8804
-2.4653,-496.614
-2.4623,-496.614
-2.4625,-495.9036
-2.4599,-496.5696
-2.4597,-496.17
-2.4672,-496.4364
-2.4676,-496.2144
-2.4625,-496.3476
-2.4597,-496.5696
-2.4625,-496.8804
-2.4623,-496.4364
-2.4623,-496.2588
-2.4595,-496.17
-2.462,-496.8804
-2.4669,-496.7472
-2.4691,-497.9016
-2.4609,-498.0348
-2.459,-497.9904
-2.4667,-498.0348
-2.4613,-497.9016
-2.4613,-497.724
-2.4665,-497.5908
-2.4693,-497.28
-2.4663,-497.3688
-2.4667,-497.3688
-2.4691,-497.28
-2.4639,-497.1912
-2.4616,-497.0136
-2.4616,-497.4576
-2.4585,-497.1912
-2.4667,-497.3244
-2.459,-496.6584
-2.4667,-497.1024
-2.4587,-497.502
-2.4562,-497.1912
-2.4616,-496.9692
-2.4564,-496.8804
-2.4611,-497.1024
-2.4566,-497.4132
-2.459,-497.4132
-2.4583,-496.8804
-2.4613,-496.836
-2.4663,-496.8804
-2.4613,-496.9248
-2.4616,-496.17
-2.4669,-496.3032
-2.4639,-496.614
-2.4665,-496.3476
-2.4613,-496.2144
-2.4538,-497.1912
-2.1687,-432.9133
-1.3925,-282.273
-0.64,-133.1201
0.0997,6.9206
0.8682,150.8312
1.6563,290.6024
2.4051,423.314
2.9845,498.2124
2.1785,362.153
1.3925,221.1653
0.6083,78.4726
-0.1182,-59.4516
-0.8639,-203.241
-1.6098,-348.6421
-2.3628,-493.3728
-3.1024,-636.1188
-3.9103,-744.144
-4.86,-780.9516
-6.0653,-714.5736
-7.2451,-655.9656
-8.384,-612.6312
-9.5016,-578.754
-10.6142,-550.4268
-11.7302,-525.6072
-12.8537,-503.4072
-13.9537,-483.4272
-15.0376,-465.09
-15.2573,-424.8148
-15.2547,-423.9179
-15.2575,-422.577
-15.2573,-422.3683
-15.2527,-421.7467
-15.255,-421.3294
-15.2578,-420.7033
-15.2555,-420.4325
-15.2507,-420.1972
-15.2532,-419.8997
-15.2507,-419.6599
-15.2484,-419.54
-15.2502,-419.2115
-15.2507,-419.1848
-15.2456,-419.0028
-15.2507,-418.8252
-15.2608,-418.7053
-15.256,-418.5277
-15.2509,-418.2613
-15.2481,-418.2302
-15.2555,-418.1104
-15.2453,-418.2302
-15.2461,-418.0216
-15.2514,-417.6042
-15.2613,-417.693
-15.2484,-417.9017
-15.2591,-417.9017
-15.2568,-418.0526
-15.2514,-417.9905
-15.2591,-417.6353
-15.2563,-417.9328
-15.2481,-417.8706
-15.2512,-417.9905
-15.2568,-417.5154
-15.256,-417.4532
-15.254,-417.4266
-15.2568,-417.2179
-15.2509,-416.9782
-15.2537,-416.9471
-15.2512,-416.6496
-15.254,-417.098
-15.2491,-416.8894
-15.2484,-416.6496
-15.2489,-416.6807
-15.256,-416.7695
-15.2588,-416.3521
-15.2568,-416.0857
-15.2484,-416.0546
-15.2512,-416.4143
-15.2466,-416.0857
-15.2458,-416.2633
-15.2486,-416.7118
-15.2517,-416.2322
-15.2484,-416.5031
-15.2591,-416.2944
-15.2537,-415.9348
-15.2565,-415.9658
-15.257,-415.9658
-15.2542,-415.7882
-15.2596,-416.2322
-14.4302,-363.2986
-13.4983,-300.6812
-12.5773,-234.1345
-11.6477,-163.7694
-10.7363,-91.353
-9.8722,-19.6514
-9.3878,15.6488
-9.3876,15.3207
-9.3904,14.3079
-9.3886,14.3079
-9.3883,13.2951
-9.3805,13.2356
-9.3802,13.1166
-9.3828,12.4014
-9.3853,13.0572
-9.3825,12.789
-9.3828,12.7592
-9.38,12.8187
-9.3774,12.8485
-9.3729,12.7295
-9.3779,13.027
-9.3878,12.4014
-9.3932,12.4911
-9.385,11.9547
-9.3835,11.8952
-9.3828,12.1634
-9.3835,12.4911
-9.3858,12.0737
-9.3835,12.4613
-9.383,12.9972
-9.3805,12.9377
-9.3835,12.8782
-9.3853,12.61
-9.3858,12.729
-9.3825,12.1931
-9.3878,12.6398
-9.3833,12.61
-9.385,12.2824
-9.3805,11.8655
-9.3774,12.0142
-9.3802,12.729
-9.3802,12.2526
-9.3828,12.2526
-9.382,11.7758
-9.3774,11.9547
-9.38,12.3419
-9.3774,12.0142
-9.3797,11.925
-9.3802,11.2696
-9.3828,11.1204
-9.3797,11.2101
-9.3774,11.1204
-9.3777,11.5973
-9.3876,11.4183
-9.382,11.4778
-9.3828,11.5675
-9.3825,11.9547
-9.38,12.3121
-9.38,11.6865
-9.3848,11.6865
-9.38,11.7758
-9.38,11.6568
-9.3772,11.508
-9.3823,11.806
-9.3749,11.8357
-9.3825,11.7758
-9.3723,12.2526
-9.3802,12.2526
-9.383,12.1634
-9.3772,12.1634
-9.3777,11.746
-9.3845,12.0439
-9.3797,11.4485
-9.3777,11.5973
-9.3749,11.9547
-9.3797,11.8655
-9.3746,11.627
-9.3721,11.7163
-9.3797,11.3589
-9.3721,11.0907
-9.3744,11.4183
-9.3746,11.2994
-9.379,11.3886
-9.3825,11.5378
-9.3764,11.2994
-9.3749,11.4783
-9.3746,11.0907
-9.3693,11.2399
-9.3772,10.9419
-9.3795,10.7333
-9.3772,11.2399
-9.3767,10.8229
-9.38,11.1204
-9.3746,11.3589
-9.3769,11.1204
-9.3764,11.6568
-9.3772,11.0907
-9.382,11.3886
-9.3749,10.7333
-9.3802,11.508
-9.379,10.4056
-9.3739,10.3758
-9.3823,10.6143
-9.3739,10.4056
-9.3817,10.7333
-9.38,10.644
-9.369,10.8229
-9.3736,10.8527
-9.382,11.2994
-9.3802,10.644
-9.3815,10.7333
-9.3744,10.9122
-9.3792,11.0312
-9.3744,11.2101
-9.3784,10.8527
-9.3741,10.7333
-9.3718,10.7928
-9.379,10.7928
-9.3739,10.7928
-9.3777,11.2399
-9.379,10.7035
-9.3741,10.8229
-9.3739,10.7928
-9.3764,10.5845
-9.3767,10.1077
-9.3815,10.4056
-9.3739,10.1374
-9.3739,10.8824
-9.3764,10.9122
-9.3845,10.8824
-9.3787,10.9419
-9.3736,10.9122
-8.858,60.7481
-7.9312,130.7846
-7.0129,196.7675
-6.0909,258.4879
-5.1509,317.2646
-4.2194,373.9501
-3.3043,428.6154
-2.3892,481.3848
-1.4715,533.5104
-0.5339,584.5704
0.3823,634.1208
1.3251,682.9164
2.2388,730.6464
3.1755,776.8668
4.1034,820.4232
5.0305,860.6052
5.9901,895.8144
6.9621,926.2728
7.94,951.5808
8.9403,971.5608
9.9469,987.1452
10.9698,999.6216
11.9817,1009.523
13.0345,1017.559
14.0739,1024.264
15.1402,1029.636
15.0754,943.2336
14.2497,831.2568
13.4173,720.7452
12.6169,610.5444
11.8214,497.724
11.0289,379.2248
10.2413,256.4633
9.4658,132.7205
8.6815,11.806
7.9195,-97.4624
7.11,-204.613
6.2474,-300.8322
5.3876,-383.4073
4.458,-447.9072
3.5128,-490.5756
2.4918,-511.932
1.4398,-517.704
0.3755,-514.7292
-0.6949,-507.5808
-1.7718,-498.2568
-2.8202,-488.0448
-3.8979,-477.9216
-4.969,-466.866
-6.051,-455.2776
-7.1559,-442.8944
-8.226,-430.2937
-9.3086,-418.3768
-10.3612,-407.0015
-11.4475,-396.2744
-12.5565,-386.4754
-13.6238,-377.2712
-14.698,-368.631
-15.3226,-339.3758
-14.3767,-299.6112
-13.3942,-258.7099
-12.3949,-215.9039
-11.4028,-171.2197
-10.4452,-124.7773
-9.4986,-76.994
-8.5634,-29.3329
-7.6411,16.1549
-6.6784,62.2399
-5.7173,106.3868
-4.7401,148.6556
-3.7828,189.0508
-2.8085,227.7454
-1.8376,265.1612
-0.8728,301.6536
0.0966,337.6087
1.0712,373.8613
2.0742,410.2072
3.0206,446.7972
3.9817,483.6492
4.9591,521.7444
5.9106,560.2836
6.8547,599.0892
7.8123,639.0936
8.7663,679.764
9.7399,721.278
10.6837,762.7032
11.623,803.7732
12.5758,844.1328
13.5339,882.894
14.507,920.0568
15.4836,955.1772
14.8156,833.4768
13.9906,721.8996
13.1793,610.3668
12.3604,497.4132
11.5827,379.3447
10.8003,257.298
10.0203,134.714
9.2309,15.4698
8.4356,-91.6816
7.6124,-191.8924
6.7417,-277.4467
5.825,-344.4996
4.8791,-390.7955
3.8979,-418.4966
2.8585,-432.8867
1.8147,-438.4855
0.7452,-438.8141
-0.3058,-436.0124
-1.3836,-431.3948
-2.4288,-425.8848
-3.4966,-419.8997
-4.5563,-413.5549
-5.6248,-407.3256
-6.7003,-400.7455
-7.7912,-394.4585
-8.844,-387.5454
-9.9159,-380.0418
-10.9746,-372.7114
-12.0378,-365.1145
-13.1272,-357.9972
-14.2088,-350.6978
-15.2433,-343.9357
-16.3358,-337.3246
-17.4084,-331.1574
-18.4785,-325.1368
-19.5283,-319.2982
-20.5791,-313.8769
-21.6482,-308.873
-22.7272,-303.9002
-23.8016,-299.074
-24.8707,-294.3986
-25.9385,-289.9897
-26.9951,-285.8472
-27.9578,-274.7072
-26.9545,-241.909
-26.8072,-238.2726
-26.7868,-238.3348
-26.7868,-237.5
-26.7868,-237.7664
-26.7843,-237.4379
-26.7945,-237.6776
-26.7945,-237.6776
-26.7894,-237.4112
-26.7894,-237.6466
-26.797,-237.4112
-26.7894,-237.3491
-26.7919,-237.3802
-26.7919,-237.3491
-26.7945,-237.2603
-26.7868,-237.1404
-26.7818,-237.3224
-26.7919,-237.2603
-26.7868,-237.1715
-26.7843,-236.9628
-26.7995,-237.2603
-26.7843,-236.9317
-26.7868,-236.6342
-26.7868,-236.723
-26.7919,-236.9939
-26.7945,-236.4256
-26.7945,-237.1715
-26.7945,-236.4877
-26.7919,-236.9939
-26.7894,-236.6653
-26.7894,-236.9939
-26.7919,-236.9317
-26.7868,-236.5144
-25.781,-211.7614
-24.7736,-186.591
-23.7515,-160.7014
-22.751,-134.0125
-21.734,-106.5156
-20.732,-78.8411
-19.7551,-50.7803
-18.7648,-23.1071
-17.8079,3.3159
-16.7927,29.7982
-15.7858,55.1182
-14.7813,79.5781
-13.7721,103.1101
-12.7762,125.4788
-11.7391,146.8708
-10.7348,167.3658
-9.732,187.4701
-8.7175,206.833
-7.713,226.3778
-6.6909,245.2345
-5.669,264.2999
-4.6609,283.3652
-3.6604,302.8435
-2.653,322.8058
-1.6561,342.9989
-0.6214,364.0933
0.3698,385.8671
1.3703,408.6265
2.3983,432.3672
3.382,456.8316
4.3729,482.85
5.3462,509.8452
6.3132,537.9504
7.321,567.21
8.2997,597.7572
9.2733,629.6364
10.2377,662.004
11.2296,694.9488
12.1829,728.6484
13.1534,763.3248
14.1333,798.1788
15.115,833.5656
16.0952,868.8192
17.0675,903.8064
18.0398,937.4172
19.0043,968.586
20.001,994.782
21.0249,1014.229
22.0754,1025.418
23.1013,1031.767
24.1244,1036.296
25.1686,1041.091
26.2433,1044.821
27.3101,1048.284
27.7749,994.0716
26.9596,882.7164
26.1315,774.1584
25.2875,665.9556
24.4815,557.5308
23.7035,445.1988
22.9278,328.3735
22.1219,209.0086
21.2956,91.2553
20.5191,-17.6259
19.6832,-119.5958
18.8171,-212.2675
17.9405,-291.002
17.0177,-352.2785
16.0371,-394.756
15.0251,-419.9574
13.9878,-432.3184
12.9405,-435.8659
11.8704,-434.7914
10.8323,-431.0086
9.7394,-425.1389
8.6589,-418.7364
7.5969,-412.0054
6.5242,-404.706
5.4724,-397.4377
4.4064,-389.9608
3.3271,-382.6614
2.2526,-375.2422
1.1683,-368.005
0.0919,-361.0652
-0.9771,-354.0634
-2.0339,-347.4211
-3.1077,-340.7789
-4.1598,-334.4918
-5.2073,-328.5067
-6.305,-322.606
-7.3706,-317.127
-8.4305,-311.9411
-9.5054,-306.9061
-10.5496,-301.991
-11.6241,-297.1958
-12.6992,-292.5782
-13.7716,-288.2581
-14.8229,-284.12
-15.8722,-280.0086
-16.9542,-276.0748
-18.0203,-272.5006
-19.0812,-268.8376
-20.1292,-265.2944
-21.1803,-261.7469
-22.2522,-258.6211
-23.3266,-255.4021
-24.387,-252.2453
-25.461,-249.3548
-26.5024,-246.4067
-27.5692,-243.5162
-27.3939,-216.9739
-26.4338,-200.4127
-26.4338,-200.5903
-26.4287,-200.3816
-26.4312,-200.1419
-26.4287,-200.2928
-26.4338,-200.173
-26.4287,-200.4127
-26.4262,-200.2618
-26.1391,-194.6052
-25.1127,-176.1925
-24.0955,-157.3669
-23.0579,-138.1506
-22.0302,-118.4326
-21.0033,-98.2661
-20.017,-77.8598
-19.001,-57.2138
-17.9934,-36.8103
-16.985,-16.6726
-15.9794,3.0477
-14.971,22.2915
-13.9705,41.2076
-12.955,59.2607
-11.9207,76.4168
-10.9075,92.9203
-9.8814,108.8599
-8.873,124.169
-7.8661,138.8876
-6.8296,153.2155
-5.792,167.095
-4.7579,180.7391
-3.7231,194.1745
-2.698,207.3702
-1.6937,220.7168
-0.6708,234.0324
0.34,247.4057
1.3828,260.8722
2.4268,274.8449
3.4564,289.1106
4.49,303.9757
5.5062,319.0495
6.5156,334.5407
7.5296,350.7156
8.54,367.7252
9.5799,385.6273
10.5941,404.5462
11.5842,424.1488
12.6012,444.888
13.6121,466.7772
14.5999,489.5544
15.6134,513.93
16.624,539.238
17.5969,566.1444
18.5895,593.8056
19.575,623.1096
20.5613,653.2128
21.5699,684.5592
22.5478,716.5272
23.5207,749.5608
24.478,783.4824
25.4533,817.6704
26.4338,851.8584
27.4244,886.1796
27.8943,869.1744
27.8968,866.1552
27.3304,787.5672
26.5049,677.4996
25.6743,567.8316
24.8778,456.7872
24.0739,341.7779
23.2806,225.5742
22.4699,111.8658
21.6304,5.6397
20.7917,-85.6654
19.9144,-165.7985
18.989,-229.0108
18.0332,-275.3599
17.0401,-307.3235
16.0175,-328.298
14.9756,-341.4626
13.9375,-348.762
12.8816,-352.8113
11.827,-353.8236
10.7826,-353.4107
9.7213,-351.2617
8.653,-348.6421
7.5804,-345.6052
6.5057,-341.7601
5.444,-337.7375
4.3848,-333.6882
3.3409,-329.3992
2.2663,-325.1678
1.202,-320.79
0.1124,-316.6475
-0.9475,-312.6293
-2.02,-308.4868
-3.0704,-304.2288
-4.1145,-300.4148
-5.1603,-296.481
-6.2471,-292.6404
-7.3043,-288.7376
-8.3609,-284.9237
-9.4226,-281.1408
-10.4894,-277.4778
-11.5461,-273.6949
-12.6309,-270.0586
-13.6878,-266.6042
-14.7414,-262.999
-15.7777,-259.6912
-16.8559,-256.5343
-17.9403,-253.2887
-18.9888,-250.0386
-20.0528,-246.7352
-21.0988,-243.7871
-22.1623,-240.6258
-23.2321,-237.1404
-24.3063,-234.0457
-25.3642,-230.7068
-26.4287,-226.9817
-27.4828,-222.7814
-28.5394,-218.075
-29.6062,-212.5384
-30.6705,-206.6687
-31.7652,-201.0654
-32.8422,-195.5554
-33.8963,-190.7291
-34.9783,-186.2935
-36.0528,-181.9423
-37.1272,-178.2172
-38.1914,-174.5852
-39.2532,-171.1886
-40.2946,-168.0629
-39.6037,-143.785
-39.4589,-142.6217
-39.4564,-142.7105
-39.4513,-142.2043
-39.4513,-142.2931
-39.4437,-141.8758
-39.4437,-141.8758
-39.4437,-141.7292
-39.4437,-141.636
-39.4487,-141.6094
-39.4437,-141.5206
-39.4462,-141.636
-39.4411,-141.5783
-39.4462,-141.4318
-39.4437,-141.4318
-39.4513,-141.5783
-39.4462,-141.6982
-39.4437,-141.4584
-39.4462,-141.8447
-39.4386,-141.4007
-39.4462,-141.5472
-39.4487,-141.6094
-39.4411,-141.7559
-39.436,-141.5206
-39.4386,-141.4895
-39.4437,-141.4007
-39.4386,-141.1609
-39.4462,-141.4584
-39.4437,-141.4895
-39.4437,-141.818
-39.4411,-141.4318
-39.4462,-141.2808
-39.4386,-141.3119
-39.4487,-141.4584
-39.4437,-141.3696
-38.9331,-134.6963
-37.8943,-122.3042
-36.8681,-109.9433
-35.8064,-97.4624
-34.7777,-84.8306
-33.7185,-72.1411
-32.6949,-59.3584
-31.6433,-46.5223
-30.6045,-33.831
-29.5885,-21.2006
-28.5725,-9.1957
-27.5438,3.018
-26.5125,14.5463
-25.4864,25.9256
-24.4599,36.5905
-23.4074,47.1972
-22.366,57.4136
-21.3253,67.2127
-20.2982,76.6255
-19.2799,85.9495
-18.2349,94.976
-17.1988,103.7939
-16.1519,112.2832
-15.1127,121.0433
-14.0858,129.4748
-13.0541,137.8442
-12.0012,146.3335
-10.9629,154.885
-9.9304,163.4009
-8.8938,171.8324
-7.8826,180.4727
-6.841,189.0818
-5.7798,197.9574
-4.7442,206.8951
-3.7097,216.0104
-2.6721,225.2146
-1.6678,234.805
-0.6212,244.4886
0.4014,254.4386
1.4443,264.9526
2.493,275.4976
3.5276,286.6686
4.5522,298.1682
5.586,310.1429
6.6053,322.6237
7.6266,335.6418
8.6667,349.317
9.7023,363.9113
10.7203,378.9274
11.7292,395.2222
12.7561,412.3783
13.7678,430.3115
14.7803,449.0616
15.7927,469.0416
16.8199,490.7532
17.8206,513.1752
18.8095,537.0624
19.8161,562.4148
20.8214,588.9216
21.829,616.8936
22.7935,645.798
23.7874,676.212
24.7546,707.3808
25.7124,739.5264
26.7183,772.6932
27.7114,806.6592
28.6918,841.38
29.6494,875.8344
30.6426,909.0456
31.6128,941.502
32.5882,971.6052
33.589,998.2896
34.605,1019.824
35.6413,1034.342
36.6827,1042.201
37.7292,1046.597
38.7833,1049.971
39.8501,1053.035
40.1701,989.1432
39.3471,879.1644
38.5445,772.1604
37.7012,665.6892
36.8859,558.774
36.0858,448.662
35.2527,333.9768
34.45,218.4214
33.622,104.895
32.8244,-1.5694
31.9913,-95.9706
31.1226,-182.5994
30.226,-254.0302
29.2786,-308.9041
28.2905,-346.5553
27.2593,-369.8831
26.2204,-382.7191
25.1755,-388.2025
24.1221,-389.4812
23.0538,-387.905
21.9979,-384.5395
20.937,-380.1572
19.8328,-375.0068
18.7549,-369.226
17.6975,-363.0588
16.6116,-356.6252
15.5212,-349.8631
14.4582,-342.2974
13.3792,-333.7193
12.3149,-322.5482
11.2207,-309.1439
10.1387,-295.5575
9.046,-283.1965
7.972,-272.2342
6.8849,-262.4928
5.8326,-253.8836
4.7501,-245.9893
3.6695,-238.6322
2.6116,-232.1054
1.5292,-226.0582
0.4588,-220.4904
-0.6067,-215.007
-1.675,-210.123
-2.7269,-205.4743
-3.7943,-201.0654
-4.8484,-197.0738
-5.9167,-193.0556
-6.9992,-189.2728
-8.0627,-185.6364
-9.0957,-182.4485
-10.1641,-179.1718
-11.2225,-176.0726
-12.2832,-173.0934
-13.3528,-170.1763
-14.4056,-167.3747
-15.4638,-164.9016
-16.5407,-162.4596
-17.5915,-159.9288
-18.6472,-157.6644
-19.7127,-155.6708
-20.7399,-153.4642
-21.814,-151.4972
-22.8719,-149.3527
-23.9588,-147.5057
-25.0139,-145.6897
-26.0502,-143.8116
-27.1374,-141.9379
-28.1813,-140.5082
-29.2405,-138.7189
-30.3124,-136.9918
-31.3893,-135.5621
-32.4282,-134.2212
-33.5026,-132.5207
-34.5618,-130.9756
-35.6362,-129.7235
-36.6954,-128.1739
-37.7774,-126.802
-38.8214,-125.4611
-39.8678,-124.391
-40.1345,-107.71
-40.1295,-107.8565
-40.132,-107.3192
-40.1269,-107.1106
-40.1269,-107.0218
-40.132,-107.1416
-40.1295,-106.7243
-40.132,-106.7243
-40.132,-106.5156
-40.1295,-106.489
-40.132,-106.3691
-40.1371,-106.2803
-40.132,-106.3069
-40.1295,-106.2492
-40.132,-106.338
-40.1269,-106.2181
-40.1295,-106.3691
-40.1269,-106.0094
-40.1345,-106.3957
-40.1269,-106.0405
-40.1295,-106.0094
-40.1269,-106.0405
-40.1244,-106.0094
-40.1295,-106.0982
-40.1295,-106.0405
-40.1244,-106.0982
-40.1295,-106.0982
-40.1244,-106.0716
-40.1269,-105.8896
-40.1295,-106.1604
-40.1295,-105.9517
-40.1244,-105.7741
-40.1345,-105.5921
-40.1244,-105.712
-40.1295,-106.0094
-39.6392,-101.0633
-38.6105,-91.8902
-37.5818,-83.0724
-36.5252,-73.8994
-35.4863,-64.8995
-34.4373,-55.9351
-33.368,-47.1484
-32.3164,-38.121
-31.3004,-29.7205
-30.2641,-21.2898
-29.2202,-13.4257
-28.1915,-5.7103
-27.1374,1.8561
-26.1112,8.6482
-25.0701,15.3806
-24.0386,21.6361
-22.972,27.7429
-21.9243,33.7902
-20.8839,39.2714
-19.8542,44.7508
-18.814,50.172
-17.7856,55.4156
-16.7201,60.3618
-15.6538,65.339
-14.6342,70.2808
-13.5809,75.1958
-12.5247,79.8445
-11.4976,84.8484
-10.4488,89.5859
-9.4036,94.4388
-8.3652,99.416
-7.3223,104.3622
-6.2758,109.4238
-5.207,114.4898
-4.1801,119.6136
-3.1552,125.0038
-2.1246,130.2163
-1.0692,135.9084
-0.0217,141.5694
1.0333,147.6122
2.0787,153.6018
3.1382,160.1242
4.172,166.7087
5.2192,173.6795
6.239,181.0366
7.2827,188.5757
8.3114,196.7675
9.3596,205.4344
10.4211,214.4609
11.4249,223.9936
12.4696,234.4187
13.5136,245.3544
14.5593,256.8496
15.5806,269.4814
16.623,282.9168
17.6515,297.2758
18.6835,312.7358
19.7165,329.4169
20.7477,347.3812
21.7617,366.5664
22.7757,387.2657
23.7808,409.4923
24.7825,433.1131
25.7734,457.9416
26.7792,484.6704
27.7774,512.598
28.7731,542.2128
29.7612,572.538
30.7315,604.062
31.7017,637.0956
32.6847,671.2392
33.6525,706.0044
34.638,741.6576
35.621,778.2432
36.5989,815.3172
37.5564,852.258
38.5445,889.0212
39.5021,925.1184
40.4749,950.9148
39.6469,826.5504
39.3573,787.9224
39.3573,788.0112
39.3522,787.212
39.3573,787.5672
39.3573,787.2564
39.3548,786.8124
39.3497,786.4128
39.3624,786.6792
39.3522,786.5016
39.3548,786.768
39.3522,786.5016
38.9103,728.826
38.0898,620.712
37.2669,512.9532
36.4541,400.7011
35.6489,286.1047
34.8336,172.4896
34.0081,63.2522
33.1902,-32.9967
32.3291,-119.951
31.4198,-191.1775
30.4673,-245.4832
29.4894,-283.9114
28.4861,-309.3215
27.432,-324.8126
26.3728,-332.5871
25.3444,-334.7005
24.2707,-331.486
23.1978,-322.8768
22.1089,-310.9288
21.0086,-298.5944
19.9243,-286.7396
18.8455,-276.0748
17.761,-266.0981
16.6713,-256.743
15.5852,-248.2226
14.526,-240.4171
13.4468,-233.2687
12.3822,-226.7153
11.2972,-220.2196
10.2344,-214.6829
9.1697,-209.1995
8.095,-204.1956
7.0328,-199.578
5.9746,-195.0803
4.9152,-191.0887
3.841,-187.1238
2.7902,-183.4919
1.7039,-180.0065
0.6428,-176.6987
-0.4262,-173.5108
-1.4795,-170.5937
-2.5328,-167.5834
-3.589,-165.0836
-4.6472,-162.3397
-5.7102,-159.9288
-6.7821,-157.4246
-7.8303,-155.1025
-8.9012,-152.7182
-9.9489,-150.5737
-10.9967,-148.3093
-12.0731,-146.3735
-13.1389,-144.4376
-14.1864,-142.6217
-15.2364,-140.6858
-16.3055,-138.9853
-17.3586,-137.4358
-18.4274,-135.9794
-19.4785,-134.1324
-20.5306,-132.6139
-21.5816,-131.1842
-22.6555,-129.6924
-23.716,-128.3826
-24.7747,-126.7442
-25.8369,-125.7008
-26.8757,-124.5376
-27.9425,-122.9303
-29.0017,-121.7404
-30.0711,-120.5771
-31.1455,-119.4449
-32.1996,-118.0729
-33.2537,-117.0029
-34.3332,-115.9018
-35.4025,-114.7962
-36.4668,-113.7262
-37.5361,-112.7138
-38.5826,-111.7903
-39.6367,-110.7158
-40.6832,-109.9433
-41.7576,-108.9887
-42.8244,-107.9453
-43.876,-106.9951
-44.9351,-106.0094
-46.0172,-105.3834
-47.0764,-104.3711
-48.1152,-103.8338
-49.1795,-102.9103
-50.2488,-102.1688
-51.3131,-101.4806
-52.3824,-100.4994
-53.4391,-99.7846
-54.4906,-99.2784
-55.532,-98.4437
-56.6014,-97.9952
-57.6809,-97.1028
-58.7477,-96.4768
-59.7967,-95.9395
-60.3098,-80.0932
-60.2488,-79.8534
-60.2437,-79.7957
-60.2488,-79.1696
-60.2513,-78.7523
-60.2412,-79.0808
-60.2412,-78.7523
-60.2488,-78.7523
-60.2412,-78.6324
-60.2463,-79.0231
-60.2513,-78.4859
-60.2463,-78.9032
-60.2488,-78.6946
-60.2488,-78.5747
-60.2539,-78.7256
-60.2463,-78.5747
-60.2488,-78.5436
-60.2463,-78.366
-60.2437,-78.1884
-60.2412,-78.4548
-60.2513,-78.5436
-60.2463,-78.1262
-60.2463,-78.2461
-60.2463,-78.3083
-60.2463,-78.3083
-60.2488,-78.7523
-60.2488,-78.4548
-60.2488,-78.6324
-60.2463,-78.4548
-60.2463,-78.4237
-60.2463,-78.5747
-60.2463,-78.5436
-60.2463,-78.3083
-60.2488,-78.366
-60.2437,-78.6635
-60.2488,-78.2461
-60.2386,-78.6324
-60.2412,-78.3349
-60.2386,-78.2461
-60.2412,-78.2461
-60.2463,-78.7834
-60.2463,-78.6946
-60.2488,-78.6058
-60.2539,-78.3349
-60.2437,-78.5747
-60.2437,-78.7256
-60.2463,-78.5436
-60.2412,-78.7523
-60.2513,-79.0231
-60.2539,-78.9032
-59.4716,-73.331
-58.42,-67.7322
-57.3659,-61.6849
-56.3042,-55.8152
-55.2399,-50.1542
-54.2061,-44.3765
-53.1647,-38.7763
-52.1284,-33.0864
-51.0743,-27.6053
-50.0151,-22.3328
-48.9737,-17.5664
-47.9171,-12.6216
-46.8859,-7.9445
-45.8445,-3.4761
-44.7954,0.5752
-43.749,4.6562
-42.6796,8.5883
-41.6255,12.1634
-40.5816,15.6483
-39.5453,18.9255
-38.5039,22.232
-37.4472,25.3
-36.388,28.4577
-35.3289,31.4072
-34.2748,34.3563
-33.2232,37.1264
-32.1615,40.0159
-31.0998,42.6675
-30.0279,45.3768
-28.989,48.2095
-27.94,50.6826
-26.9062,53.4798
-25.8445,55.8064
-24.8036,58.6346
-23.7437,61.1965
-22.6825,63.8161
-21.6073,66.378
-20.5687,69.0287
-19.5273,71.5906
-18.4915,74.2457
-17.4269,76.7765
-16.3909,79.5781
-15.3137,82.4952
-14.2801,84.9994
-13.2344,87.7078
-12.1727,90.9268
-11.1448,93.8172
-10.0833,96.6455
-9.0338,99.6247
-8.0112,102.7816
-6.972,105.9695
-5.8976,109.2773
-4.8415,112.6739
-3.7996,116.066
-2.7488,119.7024
-1.7108,123.3077
-0.6645,127.2992
0.3736,131.2597
1.4448,135.2513
2.4906,139.6025
3.5408,144.189
4.5827,148.7178
5.6281,153.8682
6.6678,159.1118
7.6972,164.5331
8.7544,170.4338
9.8087,176.5078
10.861,182.8259
11.8971,189.7656
12.9217,197.1227
13.9779,204.9593
14.0952,199.8044
14.0993,198.317
14.0998,197.4202
14.096,196.9451
14.1016,196.1414
14.0998,195.7818
14.095,195.844
14.0973,195.6664
14.1028,195.9328
14.0978,195.4266
14.1026,195.0092
14.0978,195.7552
14.1028,195.3378
14.1011,194.8583
14.1059,194.5919
14.1041,194.7428
14.1013,194.9204
14.1056,194.623
14.1011,194.0546
14.1094,194.2944
14.0988,193.9658
14.1011,193.846
14.1039,193.9348
14.0937,193.5796
14.0988,193.4908
14.1089,193.8193
14.1094,193.5796
14.112,193.3398
14.1097,193.1933
14.1021,193.6373
14.1072,192.9535
14.1039,193.1622
14.1049,193.1045
14.1072,193.4908
14.1046,193.0734
14.0973,192.656
14.1021,193.2199
14.1041,193.0423
14.1072,192.9846
14.1018,192.8026
14.1074,192.7448
14.1021,192.8647
14.099,193.251
14.1079,192.8336
14.1003,192.7759
14.1023,193.402
14.1018,193.3132
14.1023,193.1622
14.1077,193.0734
14.1023,193.1622
14.1023,192.9846
14.11,192.656
14.1026,192.8026
14.0998,192.2964
14.1054,192.625
14.1028,192.656
14.1051,192.181
14.1054,192.0877
14.1051,192.1188
14.0947,191.9101
14.9794,213.3287
16.051,222.8036
17.1084,232.5139
18.1249,243.0278
19.164,254.3188
20.2093,266.6531
21.259,279.9376
22.2824,294.6828
23.3271,310.6801
24.323,327.8984
25.3335,347.1414
26.3601,367.8762
27.366,390.6623
28.3997,415.806
29.3954,443.001
30.3809,472.7712
31.3614,504.6948
32.3342,539.1492
33.3146,575.868
34.2798,614.3184
34.5135,611.61
34.511,607.9248
34.5084,606.4152
34.5186,605.0388
34.5186,604.1952
34.5186,603.3516
34.5186,603.1296
34.5186,601.9752
34.5161,601.7976
34.5161,601.2648
34.5186,600.954
34.5211,600.954
34.5186,601.0428
34.5211,600.51
34.5237,600.732
34.5237,600.6876
34.5135,600.288
34.5237,599.7552
34.5161,599.6664
34.5211,599.4444
35.3949,661.5156
36.3652,703.0296
37.3355,745.1208
38.2956,788.1888
39.2633,830.724
40.2082,872.5932
41.1861,912.9972
42.1513,950.9148
43.114,984.3036
44.1274,1011.61
45.146,1030.258
46.1747,1039.582
47.2415,1044.466
48.3006,1048.417
49.3649,1051.481
50.4393,1054.456
51.4731,1056.942
52.5069,1059.384
53.5864,1061.56
54.6608,1064.135
55.7225,1066.399
56.7919,1068.664
57.8434,1070.839
58.9178,1073.37
59.9745,1075.501
60.2513,1008.99
60.1853,997.5792
60.1802,995.9364
59.5274,908.202
58.6969,803.3736
57.8612,699.078
57.0128,594.6048
56.2051,487.9116
55.3949,377.4666
54.5719,265.8184
53.7413,155.0315
52.898,49.1908
52.0827,-44.4044
51.2369,-131.1798
50.3174,-204.9104
49.3751,-263.4163
48.3972,-305.6274
47.4015,-333.5994
46.3855,-349.6234
45.3263,-357.4289
44.257,-359.4535
43.1978,-356.5364
42.103,-348.4334
41.0159,-335.0291
39.9161,-319.569
38.8391,-305.0014
37.7241,-291.3883
36.637,-278.9075
35.5473,-267.6166
34.45,-257.4001
33.3807,-248.1649
32.3037,-239.7911
31.209,-232.3141
30.1473,-225.0769
29.0678,-218.3459
27.973,-212.1476
26.8808,-206.5488
25.814,-201.2474
24.7487,-196.4212
23.6997,-191.5327
22.6154,-187.4834
21.5483,-183.3143
20.4559,-179.558
19.399,-175.7485
18.3307,-172.4096
17.2545,-169.0441
16.1679,-165.945
15.1016,-163.0279
14.0378,-160.1375
12.9743,-157.4557
11.9002,-155.0448
10.8524,-152.4518
9.7729,-150.0986
8.7046,-147.8032
7.6566,-145.5388
6.5649,-143.6651
5.5273,-141.7292
4.4737,-139.7312
3.4183,-138.0618
2.3445,-136.4234
1.2762,-134.5764
0.2079,-133.1201
-0.8477,-131.3885
-1.8977,-129.9322
-2.9609,-128.3515
-4.0188,-127.0106
-5.0483,-125.4922
-6.1201,-124.2134
-7.1933,-122.8104
-8.2545,-121.4695
-9.2837,-120.4883
-10.3396,-119.1163
-11.4186,-117.8953
-12.4562,-116.6432
-13.5291,-115.6931
-14.5933,-114.6186
-15.6334,-113.4598
-16.701,-112.3853
-17.7518,-111.4618
-18.8252,-110.4805
-19.8651,-109.557
-20.9235,-108.6335
-21.973,-107.71
-23.0304,-106.6976
-24.1021,-105.9828
-25.1648,-105.0859
-26.2153,-104.34
-27.2847,-103.5097
-28.3489,-102.5862
-29.3878,-101.6893
-30.4571,-100.9168
-31.5392,-100.2907
-32.5857,-99.5182
-33.6474,-98.83
-34.7116,-98.0574
-35.7784,-97.3426
-36.8554,-96.6588
-37.9146,-95.8818
-38.9534,-95.3756
-40.0202,-94.572
-41.0794,-94.0658
-42.1538,-93.351
-43.2105,-92.725
-44.2697,-92.1877
-45.3365,-91.6505
-46.4007,-91.1754
-47.4497,-90.4606
-48.5038,-89.9233
-49.5706,-89.506
-50.6247,-88.9421
-51.7017,-88.1651
-52.7634,-87.7477
-53.8175,-87.3348
-54.8615,-86.7665
-55.9333,-86.2914
-56.9849,-85.8119
-58.0644,-85.4567
-59.121,-84.8306
-60.1853,-84.5642
-60.1497,-69.0997
-60.1421,-68.891
-60.1497,-68.5669
-60.1472,-68.2073
-60.1497,-68.4781
-60.1421,-67.7322
-60.1421,-67.8521
-60.1447,-67.821
-60.1396,-68.0297
-60.1472,-67.6123
-60.1421,-67.7899
-60.1396,-67.8787
-60.1472,-67.5546
-60.1421,-67.5812
-60.1396,-67.5812
-60.1421,-67.821
-60.137,-68.0874
-60.1421,-67.6123
-60.1472,-67.7322
-60.1421,-67.226
-59.2404,-63.5009
-58.2041,-58.8833
-57.1195,-54.6253
-56.073,-50.1276
-55.0113,-45.7453
-53.9699,-41.3382
-52.9285,-37.1082
-51.8668,-32.6993
-50.8127,-28.499
-49.7586,-24.5372
-48.6994,-20.4857
-47.6682,-16.9408
-46.6242,-13.3364
-45.5803,-9.9403
-44.5135,-6.8123
-43.4721,-3.4463
-42.4104,-0.5866
-41.3614,2.4519
-40.3022,5.2521
-39.2582,8.0524
-38.2168,10.4948
-37.1602,13.1464
-36.1188,15.3509
-35.0418,17.5851
-33.97,19.9383
-32.9438,22.113
-31.8821,24.3769
-30.8127,26.2537
-29.7409,28.4875
-28.702,30.6027
-27.6631,32.539
-26.6014,34.505
-25.5651,36.2926
-24.4945,38.1991
-23.4305,40.1354
-22.3759,41.9824
-21.3159,43.9187
-20.2695,45.7054
-19.2258,47.7034
-18.1765,49.3417
-17.1224,51.2465
-16.068,53.0935
-15.0165,54.9406
-13.9819,56.6988
-12.9225,58.5148
-11.8628,60.5128
-10.8115,62.2976
-9.7551,64.0559
-8.7183,66.0228
-7.6589,67.9276
-6.6076,69.7746
-5.5623,71.6527
-4.5006,73.3799
-3.4615,75.5244
-2.4022,77.549
-1.3707,79.4582
-0.3148,81.514
0.7554,83.6274
1.8071,85.803
2.8631,87.9164
3.9098,90.0343
4.9771,92.2676
6.0132,94.7096
7.0714,97.1516
8.098,99.5048
9.173,102.1555
10.2293,104.5975
11.286,107.2793
12.3447,109.9921
13.3916,112.6117
14.4473,115.622
15.4884,118.7212
16.5567,121.6693
17.6215,124.9727
18.6853,128.2805
19.7256,131.9746
20.7963,135.2824
21.8473,139.2739
22.91,143.1456
23.956,147.226
25.0243,151.3685
26.0579,155.5066
27.117,159.3516
28.1838,162.9569
29.2456,166.0826
30.3098,170.4028
31.3588,175.3489
32.4079,180.4416
33.462,186.4001
34.5008,192.5939
35.5651,199.1518
36.6166,206.5666
37.6631,214.6118
38.7147,223.1011
39.7637,231.5282
40.8026,240.2884
41.8516,247.6454
42.9082,256.9117
43.9318,268.2026
44.9859,280.8611
46.0299,294.9492
47.0357,310.5292
48.0797,326.2912
49.1134,339.7266
50.3784,232.6604
51.4426,240.7634
52.4637,253.6927
53.5,268.62
54.549,286.6686
55.5625,311.1863
56.5734,342.3151
57.5462,377.3778
58.5495,406.2422
59.6036,421.0496
60.4774,389.4413
59.6036,285.7451
59.2353,249.4037
59.2379,249.5236
59.2353,249.6701
59.2353,249.4037
59.2379,248.9552
59.2353,248.5379
59.2328,248.6311
59.2303,249.195
59.2303,249.0174
59.2353,249.3149
59.2328,249.5546
59.2353,249.5236
59.2303,249.4037
59.2303,249.4037
59.2328,249.972
59.2303,249.6124
59.2328,250.1762
59.2328,250.0874
59.2379,249.9098
59.2353,250.0297
59.2277,250.0874
59.2277,249.972
59.0398,228.7621
58.1203,144.3355
57.1957,79.0098
56.2407,32.1221
55.245,-0.1693
54.2315,-22.0939
53.2003,-38.2697
52.1843,-51.0511
51.1404,-60.2242
50.0888,-67.7899
49.0271,-74.1347
47.9679,-78.8722
46.9367,-83.7562
45.8724,-91.353
44.8132,-98.8921
43.754,-104.9083
42.7076,-108.1273
41.6509,-110.2408
40.5892,-111.6127
39.5224,-112.7716
38.4556,-113.4553
37.3863,-114.5875
36.3169,-115.3645
35.2628,-115.8707
34.1909,-116.7365
33.1394,-117.6556
32.07,-118.7611
31.0109,-119.4138
29.9491,-119.5337
28.8823,-119.325
27.7952,-119.1163
26.7208,-118.9964
25.6642,-118.699
24.6192,-118.5524
23.5461,-118.4903
22.4833,-118.3127
21.4305,-118.3127
20.3571,-118.1662
19.2883,-117.8642
18.2115,-117.2693
17.1557,-116.7365
16.0846,-116.1992
15.0261,-115.2446
13.9576,-114.29
12.8974,-113.4864
11.8288,-112.5052
10.7737,-111.7903
9.7,-111.4928
8.6418,-110.7469
7.5766,-110.2718
6.5136,-109.6458
5.4729,-108.931
4.431,-108.0962
3.3599,-107.5279
2.2873,-106.6044
1.2261,-105.9517
0.1671,-105.2058
-0.903,-104.2512
-1.9502,-103.4209
-3.0086,-102.5551
-4.0531,-101.6893
-5.1107,-100.9168
-6.177,-100.1398
-7.2499,-99.3095
-8.3,-98.4748
-9.3355,-97.8176
-10.382,-97.0451
-11.448,-96.2681
-12.5115,-95.4644
-13.5768,-94.8384
-14.6195,-93.977
-15.6868,-93.4398
-16.748,-92.6628
-17.8046,-92.13
-18.8613,-91.4152
-19.9034,-90.8468
-20.9583,-90.132
-22.0129,-89.4482
-23.0792,-88.7645
-24.1605,-88.285
-25.2148,-87.6323
-26.2585,-87.0062
-27.3253,-86.5267
-28.4048,-85.843
-29.4488,-85.3057
-30.4978,-84.7418
-31.5773,-84.2357
-32.6365,-83.7872
-33.6906,-83.1923
-34.7675,-82.624
-35.8267,-82.0912
-36.891,-81.585
-37.9527,-80.959
-39.0195,-80.5993
-40.066,-79.9466
-41.1226,-79.5559
-42.197,-79.2895
-43.2486,-78.5747
-44.3128,-78.3971
-45.3669,-77.8288
-46.4439,-77.5002
-47.4929,-77.0562
-48.5572,-76.5767
-49.596,-76.3414
-50.6806,-75.7464
-51.7423,-75.4489
-52.8142,-75.147
-53.8582,-74.6142
-54.9072,-74.1968
-55.9689,-73.8683
-57.0408,-73.3621
-58.1203,-72.9448
-59.1693,-72.6162
-60.231,-72.1411
-61.2699,-71.8126
-62.3443,-71.4263
-63.4187,-71.0089
-64.4576,-70.7114
-65.5142,-70.3518
-66.5861,-69.8456
-67.6173,-69.668
-68.6968,-69.1308
-69.7789,-68.8022
-70.8431,-68.2384
-71.8922,-67.9409
-72.9564,-67.6123
-74.0156,-67.2838
-75.0748,-67.1372
-76.0171,-58.5281
-74.93,-48.6979
-73.8708,-45.5677
-72.8193,-42.3509
-71.7753,-39.2829
-70.7238,-36.2739
-69.6519,-33.6228
-68.6003,-31.1502
-67.5259,-28.9457
-66.4769,-27.0094
-65.4304,-25.1628
-64.3687,-23.3455
-63.3349,-21.7072
-62.2732,-20.1878
-61.1988,-18.9663
-60.165,-17.7152
-59.1083,-16.4342
-58.0619,-15.2132
-56.9824,-14.2302
-55.9359,-13.1277
-54.8538,-12.115
-53.8074,-10.953
-52.7634,-10.0597
-51.6992,-9.2552
-50.6349,-8.3019
-49.5656,-7.3486
-48.514,-6.4251
-47.4701,-5.4421
-46.416,-4.7273
-45.3517,-3.9825
-44.3179,-3.1186
-43.2486,-2.493
-42.197,-1.6291
-41.1099,-1.0333
-40.071,-0.3184
-39.0195,0.3668
-37.9603,1.0221
-36.8935,1.6477
-35.8318,2.3924
-34.7675,2.7798
-33.6982,3.6436
-32.6517,4.299
-31.5976,4.8649
-30.513,5.3715
-29.4691,6.0864
-28.4124,6.6822
-27.366,7.3078
-26.3195,8.0226
-25.2583,8.4995
-24.1836,8.9164
-23.1257,9.4825
-22.0678,10.1379
-21.0055,10.7634
-19.9476,11.2994
-18.9116,11.8655
-17.8509,12.4911
-16.7988,12.8485
-15.7338,13.7125
-14.6703,13.9807
-13.6357,14.6658
-12.5705,15.2319
-11.5245,15.8273
-10.4788,16.1851
-9.411,16.6615
-8.38,17.3466
-7.3279,17.883
-6.273,18.4193
-5.1915,18.747
-4.1526,19.4321
-3.0843,19.9978
-2.0374,20.5044
-1.0061,21.1597
0.0533,21.4874
1.1237,22.0535
2.1754,22.5299
3.2482,23.096
4.3028,23.4832
5.3551,24.2579
6.4046,24.7938
7.4521,25.2112
8.5113,25.8963
9.5618,26.2835
10.6345,27.0578
11.6883,27.4454
12.7328,28.1603
13.8052,28.7859
14.8646,29.352
15.9271,29.8879
16.9908,30.4837
18.0622,31.2882
19.1214,31.9733
20.178,32.7774
21.2573,33.4328
22.3086,34.0881
23.3784,35.0711
24.4432,35.8161
25.5092,36.5607
26.5405,37.4843
27.6276,38.378
28.7122,39.3015
29.7688,40.2846
30.8305,41.5358
31.877,42.4291
32.926,43.5315
34.0004,44.693
35.0622,46.065
36.1239,47.6412
37.1958,49.102
38.26,50.7403
39.3319,52.2899
40.3987,54.1946
41.4503,56.015
42.5145,58.3682
43.5813,60.8369
44.6405,63.3988
45.6997,66.6488
46.7538,69.8368
47.8028,73.9171
48.8747,78.3838
49.9313,83.6274
50.9803,89.7635
52.0344,97.418
53.0733,106.5334
54.1147,118.0951
55.1637,132.8404
56.2026,151.4573
57.216,175.198
58.2117,203.7649
59.2404,232.989
60.2717,256.0193
61.3232,264.4464
62.4129,244.2488
63.6245,165.874
65.0138,2.0648
66.0959,2.6605
67.1576,2.6605
68.232,2.8691
68.2854,1.7073
